;------------------------------------------------------------------------
;  Version:  +G. L. Molnar, Chemical Research Center, Budapest,  Aug 18, 2003
;  Changes:	new IAEA CRP data
;  		N_Bel enrty updated by Sz.L., Sep 20, 2006

;  Nuclib.STD description
;  ----------------------
;
;  This datafile is created for nonlinearity and efficiency calibration.
;  It contains data of nuclide gamma lines and radioactive sources. 
;  It is user editable, but you must keep its fixed format.
;
;  Note that only the clearest gamma lines are involved - this is 
;  essential for exact detector calibration.
;
;------------------------------------------------------------------------
;
; Format description 
; ------------------
;
; 1) First section describes nuclides' gamma lines (which are 
;    appropriate for calibration purposes):
;
;    #<nuclide name>   [[;]comment for nuclide]
;    [T1/2: <Half-Life in days> <abs. HL unc. in days> [d]]
;    <energy> <unc. of energy> <abs. intensity> <unc. of intensity>
;    <energy> <unc. of energy> <abs. intensity> <unc. of intensity>
;    <energy> <unc. of energy> <abs. intensity> <unc. of intensity>
;    ...
;
;    Example:
;
;    #Am-241   ;IAEA-CRP Chechev 2001
;    T1/2: 157853     233 d
;       26.3446   0.0002     0.0240    0.0003
;       59.5409   0.0001     0.3578    0.0009
;
;
;  2) Second section describes certificates (sources) for detector 
;     efficiency calibration.
;
;     - First, a section-starter shows this is the second section:     
;     #CERTIFICATES: 
;
;     - Next lines describes certificates and sources in them. It is
;       possible to measure with a combined source (two or more nuclide
;       in one certificate), but this is identical with that situation
;       when nuclides are in separate certificates.
;
;
;    #<certificate name>   [;comment for certificate]
;    Nuclide: <nuclide name>
;    Activity: <activity> (<relative unc. of activity in percent>%)
;    RefDate: <time of activity measurement in mm-dd-yyyy hh:mm:ss format>
;
;    Example:
;
;      #Am85-264  ;OMH, Owner: A. Simonits 
;      Nuclide: Am-241
;      Activity: 421.2 (1%)
;      RefDate: 10-01-1985 12:00:00
;
;
;  3) You must close Nuclib.STD with a single hash-mark (#) character.
;
;------------------------------------------------------------------------
;
;    Notes:
;      - unit of energy   : keV (1000 electronvolts).
;      - unit of activity : kBq (1000 Bequerels).
;      - unit of half-life: day 
;
;      - text in angle brackets must be given. e.g.: <nuclide name>
;      - text in square brackets are optional. e.g.: [d]
;      - 'abs.' denotes 'absolute'.
;      - 'unc.' denotes 'uncertainty'.
;
;      - Text lines should not be longer than 250 characters
;      - Empty lines are allowed in every section.
;      - Placing a semicolon in a line causes remaining part of the line
;        treated as remark. 
;      - Hash-mark character has a special meaning (section starter).
;        Do not leave spaces after hash-mark because this signs end
;        of Nuclib.STD.
;
;      - Nuclide name in certificate record must be previously defined
;        in nuclides' gamma lines section and can contain only letters,
;        digits, '_' or '-' characters.
;      - In a certificate record it is possible to place more nuclides -
;        however, this situation is treated as they were in their 
;        individual certificate record.
;
;------------------------------------------------------------------------
#test1
   100.0   .1   1.0  .0
   200.0   .1   1.0  .0
   300.0   .1   1.0  .0
   400.0   .1   1.0  .0
   500.0   .1   1.0  .0
   600.0   .1   1.0  .0
   700.0   .1   1.0  .0
   800.0   .1   1.0  .0
   900.0   .1   1.0  .0
  2000.0   .1   1.0  .0

#test2
  1000.0   .1   1.0  .0
;  2000.0   .1   1.0  .0
  3000.0   .1   1.0  .0
  4000.0   .1   1.0  .0
  5000.0   .1   1.0  .0
  6000.0   .1   1.0  .0
  7000.0   .1   1.0  .0
  8000.0   .1   1.0  .0
  9000.0   .1   1.0  .0
 10000.0   .1   1.0  .0
 11000.0   .1   1.0  .0

#H_s   ;E: Kessler 1999, cross section: Mughabghab 1981
T1/2: 1000000 1; fictitious, for normalizing to cross section
2223.24876   0.00040    1.000   0.000001 ; E from wavelength meas.

#N_s  ;E.T. Jurney, J.W. Starner, J.E. Lynn, S. Raman Phys. Rev. C56(1997)118, Table 1
T1/2: 1000000 1; fictitious, for normalizing to cross section 
1678.293	0.025	0.0639	0.0007  ; all intensities in barn!
1681.228	0.050	0.0132	0.0003
1884.780	0.018	0.1507	0.0016
1999.679	0.027	0.0330	0.0004
2520.443	0.022	0.0448	0.0007
2830.805	0.036	0.0137	0.0003
3531.982	0.020	0.0718	0.0009
3677.737	0.017	0.1166	0.0013
4508.731	0.017	0.1342	0.0014
5269.162	0.017	0.2398	0.0024
5297.826	0.020	0.1705	0.0018
5533.391	0.018	0.1572	0.0017
5562.059	0.021	0.0858	0.0010
6322.433	0.016	0.1464	0.0018
7298.980	0.032	0.0754	0.0010
8310.156	0.039	0.0331	0.0007
9148.95 	0.09 	0.0131	0.0006 ; added doublet, not recommd. by Jurney
10829.1051	0.0024	0.115	0.005  ; E from mass

#N  ;E.T. Jurney, J.W. Starner, J.E. Lynn, S. Raman, Phys. Rev. C56(1997)118, Table 1
T1/2: 1000000 1; fictitious, for normalizing to cross section 
; all intensities per one neutron capture
1678.293	0.025	0.0796	0.0009
1681.228	0.050	0.0164	0.0004
1884.780	0.018	0.1877	0.0020
1999.679	0.027	0.0411	0.0005
2520.443	0.022	0.0558	0.0009
2830.805	0.036	0.0171	0.0004
3531.982	0.020	0.0894	0.0011
3677.737	0.017	0.1452	0.0016
4508.731	0.017	0.1671	0.0017
5269.162	0.017	0.2986	0.0030
5297.826	0.020	0.2123	0.0022
5533.391	0.018	0.1957	0.0021
5562.059	0.021	0.1068	0.0012
6322.433	0.016	0.1823	0.0022
7298.980	0.032	0.0939	0.0012
8310.156	0.039	0.0412	0.0009
9148.950	0.090	0.0163	0.0007; doublet, I(9152) added!
10829.110	0.059	0.1430	0.0060; original E from Jurney

#N_Bel ;T. Belgya, PHYSICAL REVIEW C 74, 024603 (2006), table 2.
T1/2: 1000000 1; fictitious, for normalizing to cross section
1678.293        0.025   6.26  0.04
1681.228        0.050   1.28  0.01
1884.780        0.018   14.57 0.09
1999.679        0.027   3.15  0.02
2520.443        0.022   4.29  0.04
2830.805        0.036   1.33  0.01
3531.982        0.020   7.13  0.06
3677.737        0.017   11.47 0.10
4508.731        0.017   13.28 0.11
5269.162        0.017   24.03 0.21
5297.826        0.020   17.08 0.19
5533.391        0.018   15.82 0.15
5562.059        0.021   8.67  0.09
6322.433        0.016   14.89 0.13
7298.980        0.032   7.68  0.08
8310.156        0.039   3.34  0.05
9148.950        0.090   1.25  0.07 ; doublet, I(9152) added!
10829.110       0.059   11.5  0.5 ; original E & I from Jurney

#Na-22 ;	IAEA, 2003
T1/2: 	950.6	0.4
511	0.001	1.798	0.002
1274.537 	0.007	0.9994	0.00014
 
#Na-24 ;	IAEA, 2003
T1/2: 	0.62323	0.00008
1368.626 	0.005	0.999935	0.000005
2754.007 	0.011	0.99872	0.00008

#Na-24_SzL ;	SzL, 2017
T1/2: 	0.62323	0.00008
1368.626 	0.005	1.000   0.008
2754.007 	0.011	0.993	0.012

#Na-24m ;	Revay Lib1%
472.222	0.013 0.505 0.005

#Al-28; Revay Lib1%
1778.85	0.03 0.332 0.003
7723.782 0.255 0.0667 0.0014

#Cl ; G. L. Molnar, Zs. Revay, T. Belgya, in: Report INDC(NDS)-437 (IAEA, 2002)
T1/2: 1000000 1; fictitious, for normalizing to cross section
; all intensities per one neutron capture in Cl-35
; typical percent contribution from interfering SE peak: Compton suppressed / normal spectrum given
292.175	0.005		0.00271	0.00004
436.220	0.005		0.00939	0.00011
517.07006	0.00023	0.230		0.003
632.434	0.007		0.00338	0.00006
786.2970	0.0004	0.1038	0.0013
788.4230	0.0004	0.1645	0.0021
936.915	0.010		0.00523	0.00006
1131.244	0.012		0.01902	0.00020
1164.8579	0.0005	0.271		0.003
1327.400	0.014		0.01220	0.00013
1601.068	0.017		0.0368	0.0004
1951.1278	0.0014	0.1921	0.0021
1959.343	0.008		0.1244	0.0014;	0.1%/1% SE
2676.31	0.03		0.01617	0.00019
2845.49	0.03		0.01061	0.00012
2863.82	0.03		0.0552	0.0006;	0.3%/3% SE
2975.25	0.04		0.01143	0.00016
3015.94	0.04		0.00996	0.00012
3061.83	0.04		0.0342	0.0004
3116.02	0.08		0.00903	0.00012;	0.4%/4% SE
3428.83	0.04		0.00824	0.00011
4082.70	0.06		0.00798	0.00017
4440.38	0.05		0.01143	0.00015;	0.6%/6% SE
4979.72	0.05		0.0374	0.0005
5517.21	0.06		0.01699	0.00021
5715.20	0.06		0.0552	0.0007
5902.69	0.06		0.01128	0.00016 
6110.80	0.06		0.200		0.003;	4.8%/48% SE 
6619.57	0.07		0.0768	0.0010
6627.78	0.07		0.0445	0.0006
6977.79	0.07		0.0225	0.0004
7413.92	0.08		0.0999	0.0016
7790.28	0.08		0.0807	0.0012
8578.53	0.09		0.0268	0.0005

#Sc-46; IAEA-2003
T1/2: 	83.788 	0.02
889.271 	0.002	0.999833	0.000005
1120.537 	0.003	0.99986	0.00036

#Ti ; G. L. Molnar, Zs. Revay, T. Belgya, in: Report INDC(NDS)-437 (IAEA, 2002)
137.46	0.03	1.218	0.010
341.69	0.03	37.86	0.14
983.50	0.04	2.275	0.019
1381.72	0.03	100.	0.4;	used for I norm.
1498.63	0.03	5.70	0.03
1553.79	0.04	1.882	0.023
1585.95	0.03	11.78	0.06
1761.96	0.03	6.00	0.04
1793.47	0.03	2.928	0.024
2943.12	0.04	1.221	0.013
3026.76	0.04	2.674	0.024
3475.62	0.04	1.950	0.018
3733.75	0.05	1.612	0.018
3920.44	0.05	1.629	0.018
4881.32	0.05	5.59	0.05
4966.74	0.05	3.66	0.04
6418.38	0.07	34.3	0.3
6555.83	0.07	5.74	0.07
6760.06	0.07	51.8	0.5;	measured with Cl standard and used for E cal.

#Si ; Revay Lib1%
1273.383	0.029	0.028916263	0.000549409
2092.914	0.032	0.033030241	0.000627575
3538.976	0.05	0.118	0.002006
4933.826	0.074	0.112414783	0.002248296
6379.747	0.107	0.021021496	0.000588602

#Fe ; revay Lib1%
352.332	0.016	0.273	0.003276
7631.051	0.093	0.652806568	0.012403325


#Cr ; G. L. Molnar, Zs. Revay, T. Belgya, in: Report INDC(NDS)-437 (IAEA, 2002)
; typical percent contribution from interfering SE peak: Compton suppressed / normal spectrum given
564.35	0.06	8.19	0.03
749.32	0.06	41.36	0.12
835.03	0.06	100.0	0.3; used for I norm.
1150.06	0.05	1.524	0.008; <0.6%/6% SE
1784.69	0.05	12.83	0.05; measured with Cl standard and used for E cal.
1899.25	0.05	6.19	0.03; <0.6%/6% SE
2239.16	0.05	13.53	0.06
2321.09	0.05	9.68	0.04; <0.6%/6% SE
2376.84	0.05	2.590	0.013
2670.20	0.05	2.007	0.012; <0.6%/60% DE
3616.88	0.08	1.886	0.013
3719.77	0.06	4.672	0.024
4322.43	0.08	2.118	0.015; <0.6%/6% SE
5268.92	0.12	3.32	0.03;	corr. for N capture background
5618.13	0.11	9.48	0.07
5998.63	0.11	5.69	0.05
6135.39	0.13	4.66	0.10
6644.47	0.14	12.29	0.10
7098.84	0.19	9.62	0.09
7361.99	0.17	6.43	0.06
7374.68	0.17	5.57	0.05
7938.65	0.18	29.4	0.3; measured with Cl standard and used for E cal.
8511.55	0.20	15.55	0.18
8882.88	0.22	56.1	0.7
9717.5	0.3	19.9	0.3

#Co Revay; Revay Lib1%
229.811	0.012	100	1.2; used for normalization
277.199	0.011	94.24	1.13088
555.941	0.01	80.27	0.88297
447.717	0.011	47.55	0.52305
158.519	0.012	16.76	0.21788
497.264	0.013	30.11	0.6022
254.371	0.012	18.03	0.23439
785.614	0.017	33.56	1.0068
391.221	0.012	15.03	0.19539
435.671	0.012	10.99	0.14287
484.284	0.011	11.19	0.14547
1515.695	0.025	24.21	0.33894
944.948	0.023	15.1	0.5436
1830.769	0.03	23.74	0.33236
717.302	0.014	11.76	0.18816
461.064	0.015	7.22	0.12996
710.493	0.016	9.19	0.17461
195.891	0.017	2.65	0.05565
726.616	0.021	6.25	0.14375
5975.601	0.222	39.9	5.9451
337.314	0.015	3.15	0.0567
1215.965	0.02	7.25	0.1305
901.148	0.018	5.82	0.12804
6705.521	0.104	42.11	0.75798
6876.764	0.108	42.09	0.8418
930.471	0.048	5.68	0.3124
5660.684	0.157	26.26	0.84032
6486.166	0.131	32.28	0.6456
680.078	0.024	3.8	0.0608
1507.279	0.029	6.45	0.129
1092.145	0.061	4.85	0.3104
1852.702	0.033	6.35	0.13335
349.885	0.024	1.73	0.0519
1103.592	0.054	3.86	0.16984
1238.436	0.024	4.04	0.09696
393.041	0.046	1.7	0.0442
2032.737	0.042	5.47	0.15316
171.66	0.018	1.01	0.02222
728.578	0.061	2.55	0.1122
1023.419	0.115	3.04	0.3648
854.039	0.026	2.6	0.091
5181.139	0.122	12.71	0.31775
1774.625	0.094	4.2	1.1088
963.343	0.053	2.67	0.15486
602.585	0.109	1.84	0.09752
7214.091	0.116	19.26	0.44298
1207.709	0.054	2.82	0.16356
1799.924	0.039	3.74	0.10098
781.745	0.044	2.03	0.08729
1274.051	0.037	2.86	0.0858
885.005	0.035	2.17	0.08246
1283.005	0.027	2.7	0.0783
928.302	0.058	2.03	0.12383
1471.912	0.09	2.71	0.10298
1277.294	0.031	2.44	0.07808
1690.76	0.089	2.99	0.19734
6984.943	0.357	14.66	1.77386
1692.92	0.09	2.98	0.19072
5742.159	0.094	10.66	0.3198
2221.617	0.045	3.64	0.11284
7491.29	0.121	16.13	0.40325
798.968	0.088	1.67	0.13694
1808.808	0.044	2.94	0.09702
3748.759	0.07	5.77	0.1731
1005.519	0.042	1.77	0.07788
947.189	0.066	1.69	0.09295
1334.675	0.068	2.15	0.13115
1818.621	0.044	2.5	0.0925
5925.39	0.097	8.95	0.2506
908.154	0.036	1.39	0.06116
665.385	0.03	1.07	0.03317
1786.176	0.157	2.18	0.12426
4906.061	0.173	5.96	0.40528
1117.68	0.059	1.47	0.06321
1075.354	0.121	1.38	0.09384
7055.428	0.117	9.28	0.25984
862.168	0.117	1.1	0.1045
1553.721	0.056	1.67	0.08183
5269.919	0.122	5.62	0.15736
1226.716	0.048	1.39	0.06116
3929.136	0.136	3.79	0.15539
5602.394	0.099	6.05	0.22385
972.693	0.1	1.15	0.1081
4026.135	0.082	3.78	0.14364
883.078	0.062	1.04	0.06448
4606.476	0.345	4.34	0.18662
2607.418	0.069	2.3	0.1081
5614.041	0.101	5.55	0.1998
3379.865	0.251	2.92	0.1314
2569.548	0.16	2.14	0.09416
3965.993	0.133	3.33	0.14985
4207.333	0.123	3.55	0.1775
5638.553	0.102	5.28	0.20064
1362.353	0.061	1.28	0.0768
2526.866	0.199	2.04	0.1122
1555.999	0.068	1.38	0.07728
4921.741	0.135	3.97	0.17468
5149.088	0.262	4.2	0.1806
2281.629	0.122	1.72	0.14792
2319.457	0.085	1.7	0.0901
4032.059	0.097	2.9	0.1305
5002.7	0.248	3.67	0.15414
1419.218	0.076	1.07	0.08239
2074.98	0.203	1.42	0.12212
1844.667	0.066	1.28	0.06912
1933.768	0.146	1.31	0.08515
4884.219	0.136	3.3	0.1386
1888.999	0.084	1.25	0.0875
4893.234	0.138	3.02	0.15704
2099.018	0.221	1.24	0.1054
1703.847	0.064	1.03	0.06489
2926.605	0.125	1.62	0.11178
7203.017	0.134	5.14	0.21588
2021.77	0.099	1.14	0.08094
2739.359	0.291	1.43	0.10296
2309.62	0.112	1.21	0.07744
2727.202	0.282	1.4	0.1022
5127.38	0.265	2.86	0.16016
2279.77	0.03	1.11	0.14985
2557.399	0.176	1.19	0.07973
3840.748	0.091	1.8	0.1116
3216.767	0.221	1.47	0.18228
2995.012	0.123	1.35	0.0972
5369.66	0.251	2.62	0.12576
3335.292	0.112	1.45	0.09715
3283.741	0.153	1.41	0.11703
4155.461	0.853	1.79	0.10919
3676.954	0.136	1.52	0.11248
6110.593	0.245	2.96	0.148
6274.7	0.265	3.09	0.16068
2453.77	0.117	1	0.073
2692.034	0.136	1.06	0.09434
3193.634	0.123	1.24	0.08928
6948.305	0.352	3.47	0.14574
4395.329	0.234	1.78	0.15308
3238.288	0.193	1.24	0.1116
4705.82	0.269	1.91	0.11842
5703.675	0.117	2.47	0.13091
6283.704	0.278	2.85	0.1539
5357.984	0.253	2.22	0.11766
4376.559	0.216	1.66	0.13778
5510.289	0.129	2.27	0.14982
2976.715	0.156	1.05	0.0924
6149.459	0.127	2.59	0.11914
4546.353	0.415	1.6	0.1248
4328.449	0.134	1.47	0.10878
3897.211	0.224	1.29	0.0903
6040.051	0.149	2.32	0.17864
3664.612	0.247	1.11	0.11988
4623.09	0.489	1.45	0.10875
3814.687	0.172	1.12	0.10192
4349.943	0.225	1.27	0.1778
4150.75	0.713	1.2	0.2988
5068.451	0.28	1.51	0.13439
3823.635	0.176	1.02	0.09894
4212.213	0.316	1.15	0.1196
4730.789	0.288	1.24	0.1116
4665.779	0.189	1.19	0.10829
4370.323	0.198	1.09	0.16568
4645.365	0.322	1.13	0.13673
5852.556	0.235	1.53	0.13923
5040.035	0.352	1.2	0.1056
5215.764	0.25	1.13	0.13447
5211.301	0.327	1.01	0.15857
7432.404	0.22	1.16	0.10092


#Cr-51 ;IAEA, 2003
T1/2: 	27.703 	0.003
320.0835 	0.0004	0.0987	0.0005

#Mn-54 ; IAEA, 2003
T1/2: 	312.13 	0.03
834.838 	0.005	0.999746	0.000011
 
#Mn-56 ; IAEA, 2003
T1/2: 	0.1076	0.0002
846.7638 	0.0019	0.9883	0.0003
1810.726 	0.004		0.276		0.006
2113.092 	0.006		0.148		0.004
2523.06 	0.05		0.0103	0.0003

#Mn-56-SzL ; SzL, 2017
T1/2: 	0.1076	0.0002
846.741		0.022	1	0.004
1810.669	0.029	0.2665	0.0013
2113.031	0.036	0.1418	0.0008
2522.793	0.051	0.01019	0.00017
2657.389	0.054	0.00682	0.0001
2959.776	0.066	0.00316	0.00007
3369.643	0.08	0.00205	0.00005


#Fe-55  ; IAEA, 2003
T1/2: 	1001.1	2.2
5.895	0.001	0.25	0.003; X-Ka

#Fe-59  ; IAEA, 2003
T1/2: 	44.495 	0.008
142.651 	0.002	0.00972	0.00015
192.349 	0.005	0.02918	0.00029
1099.245 	0.003	0.5659	0.0021
1291.590 	0.006	0.4321	0.0025

#Co-56; I: G.L. Molnar, Zs. Revay, T. Belgya, Report INDC(NDS)-437 (IAEA, 2002
;E: R. G. Helmer, C. van der Leun, Nucl. Instrum. Meth. A 450 (2000) 35.
T1/2: 77.27  0.19      ; from IAEA Tecdoc-619 (IAEA, 1991)
; E from 
846.7638	0.0019	100.0	0.2
977.363	0.004		1.424	0.006
1037.8333	0.0024	14.07	0.04
1175.0878	0.0022	2.252	0.009
1238.2736	0.0022	66.20	0.11
1360.196	0.004		4.22	0.15
1771.327	0.003		15.24	0.08
1810.726	0.004		0.641	0.005
1963.703	0.011		0.698	0.003
2015.176	0.005		2.976	0.014
2034.752	0.005		7.69	0.03
2113.092	0.006		0.372	0.004
2212.898	0.003		0.388	0.004
2598.438	0.004		16.82	0.07
3009.559	0.004		1.033	0.011
3201.930	0.011		3.196	0.017
3253.402	0.005		7.85	0.04
3272.978	0.006		1.854	0.012
3451.119	0.004		0.940	0.010
3547.93	0.06		0.196	0.002; E from ENSDF 2000

#Co-57 ; IAEA, 2003 
T1/2: 	271.80 	0.05
6.400		0.001		0.5		0.006; X-Ka
14.41295 	0.00031	0.0915	0.0017
122.06065 	0.00012	0.8551	0.0006
136.47356 	0.00029	0.1071	0.0015

#Co-58 ; IAEA, 2003 
T1/2: 	70.83 	0.1
511		0.001	0.3	0.004
810.759 	0.002	0.9945	0.0001

#Co-60 ; IAEA, 2003 
T1/2: 	1925.2	0.4
  1173.228   0.003      0.99857   0.00022
  1332.490   0.006      0.99983   0.00006

#Zn-65 ; IAEA, 2003  
T1/2: 	244.06 	0.1
1115.539 	0.002	0.506	0.0022

#Ga-72 ; Sz.L. 2016
T1/2: 	0.587291667 	0.000125
600.910 	0.008	0.058745723	0.0003630
629.955 	0.008	0.261586806	0.0016029
786.427 	0.008	0.033696194	0.0000347
810.255 	0.009	0.021043995	0.0000632
834.074 	0.009	0.9545  	0.0007700
894.25  	0.01	0.101116901	0.0003047
970.672 	0.011	0.011008609	0.0000230
999.893 	0.012	0.008081391	0.0000249
1050.694 	0.013	0.069417181	0.0000928
1215.098 	0.016	0.008108924	0.0000266
1230.901 	0.016	0.014329929	0.0000348
1260.094 	0.017	0.011680236	0.0000287
1276.773 	0.017	0.015896272	0.0000394
1463.994 	0.021	0.035966416	0.0000723
1568.163 	0.027	0.001733738	0.0000314
1571.618 	0.024	0.008426566	0.0000297
1596.756 	0.024	0.043367055	0.0000919
1680.72 	0.026	0.009184722	0.0000408
1710.846 	0.027	0.004428742	0.0000197
1837.102 	0.031	0.002173466	0.0000158
1860.98 	0.03	0.054342153	0.0001212
1877.688 	0.037	0.002209336	0.0000247
1920.227 	0.034	0.001706206	0.0000191
2109.331 	0.036	0.010838067	0.0000393
2201.529 	0.038	0.271120793	0.0006139
2214.001 	0.039	0.002296181	0.0000190
2490.929 	0.044	0.078059126	0.0001752
2507.605 	0.045	0.133960386	0.0003004
2514.72 	0.046	0.003109401	0.0000256
2621.113 	0.049	0.001450645	0.0000148
2844.018 	0.053	0.004368957	0.0000275
2939.855 	0.074	0.000139155	0.0000043
2981.292 	0.058	0.00059987	0.0000079
3035.44 	0.064	0.000237815	0.0000053
3067.405 	0.111	3.74736E-05	0.0000025
3094.232 	0.067	0.000167191	0.0000042
3324.869 	0.099	9.27534E-05	0.0000044
3337.854 	0.162	4.45454E-05	0.0000033
3341.573	0.1     1.092E-04   0.0000046 

#Se-75  ; IAEA, 2003
T1/2: 	119.79 	0.04
66.0518 	0.0008	0.01112	0.00012
96.7340 	0.0009	0.0342	0.0003
121.1155 	0.0011	0.172	0.003
136.0001 	0.0006	0.582	0.007
198.6060 	0.0012	0.0148	0.0004
264.6576 	0.0009	0.589	0.003
279.5422 	0.001	0.2499	0.0013
303.9236 	0.001	0.01316	0.00008
400.6572 	0.0008	0.1147	0.0009

#Sr-85  ; IAEA, 2003  
T1/2: 	64.849 	0.004
514.0048 	0.0022	0.984	0.004

#Y-88  ; IAEA, 2003  
T1/2: 	106.629 	0.024
14.142	0.001	0.505	0.005;	X-Ka
898.036 	0.004	0.939	0.0023
1836.052 	0.013	0.9932	0.0003

#Nb-93m   ; IAEA, 2003
T1/2: 5890	50
30.77 	0.02	0.00000559	0.00000016

#Ag-110m  ; IAEA, 2003
T1/2: 249.78 	0.02
446.812 	0.003	0.0365	0.0005
620.3553 	0.0017	0.0272	0.0008
657.7600 	0.0011	0.9438	0.0008
677.6217 	0.0012	0.1056	0.0006
687.0091 	0.0018	0.0645	0.0003
706.6760 	0.0015	0.1648	0.0008
744.2755 	0.0018	0.0471	0.0003
763.9424 	0.0017	0.2231	0.0009
818.0244 	0.0018	0.0733	0.0004
884.6781 	0.0013	0.74	0.012
937.485 	0.003	0.3451	0.0027
1384.2931 	0.002	0.247	0.005
1475.7792 	0.0023	0.0403	0.0005
1505.028 	0.002	0.1316	0.0016
1562.2940 	0.0018	0.0121	0.0003

#Cd-109   ; IAEA, 2003
T1/2: 	462.6 	0.7
22.103	0.001	0.837	0.005;	X-Ka
88.0341 	0.0011	0.0363	0.0002

#Sn-113   ; IAEA, 2003
T1/2: 	115.09 	0.03
24.138	0.001	0.801	0.005;	X-Ka
391.698 	0.003	0.6497	0.0017

#In-116    ; SzL 2017
T1/2: 	  0.03770 0.000118
138.316	0.015			0.0419	0.0005
355.4113	0.015			0.0086	0.0002
416.8728	0.004			0.3306	0.0028
463.1978	0.007			0.0089	0.0002
818.625	0.019			0.1457	0.0013
972.5003	0.024			0.0057	0.0002
1097.168	0.019			0.6906	0.0049
1293.494	0.031			1	0.0071
1507.492	0.005			0.1168	0.001
1752.344	0.012			0.028	0.0004
2112.073	0.031			0.1798	0.0017


#I-125   ; IAEA, 2003
T1/2: 	59.407 	0.009
27.379	0.001	1.137	0.013;	X-Ka
35.4919 	0.0005	0.0667	0.0017

#I-125P   ; IAEA, 2003
T1/2: 	59.407 	0.009
27.202	0.001	0.397	0.006;	X-Ka2
27.4726	0.001	0.74	0.011;	X-Ka1
35.4919 	0.0005	0.0667	0.0017

#Cs-137   ; IAEA, 2003
T1/2: 	10964	9
32.063	0.001	0.0554	0.0008;	X-Ka
661.657 	0.003	0.8499	0.002

#Cs-137P   ; IAEA, 2003
T1/2: 	10964	9
31.8174	0.001	0.0195	0.0004; X-Ka2
32.1939	0.001	0.0359	0.0007; X-Ka1
661.657 	0.003	0.8499	0.002

#Ba-133   ; IAEA, 2003
T1/2: 	3850	4
30.852	0.001	0.968	0.008;	X-Ka
53.1622 	0.0006	0.0214	0.0003
79.6142 	0.0012	0.0265	0.0005
80.9979 	0.0011	0.329	0.003
160.6120 	0.0016	0.00638	0.00004
223.2368 	0.0013	0.00453	0.00003
276.3989 	0.0012	0.0716	0.0005
302.8508 	0.0005	0.1834	0.0013
356.0129 	0.0007	0.6205	0.0019
383.8485 	0.0012	0.0894	0.0006

#Ba-133P   ; IAEA, 2003
T1/2: 	3850	4
30.625	0.001	0.34	0.004;	X-Ka2
30.973	0.001	0.628	0.007;	X-Ka1
53.1622 	0.0006	0.0214	0.0003
79.6142 	0.0012	0.0265	0.0005
80.9979 	0.0011	0.329	0.003
160.6120 	0.0016	0.00638	0.00004
223.2368 	0.0013	0.00453	0.00003
276.3989 	0.0012	0.0716	0.0005
302.8508 	0.0005	0.1834	0.0013
356.0129 	0.0007	0.6205	0.0019
383.8485 	0.0012	0.0894	0.0006

#Ce-139   ; IAEA, 2003
T1/2: 	137.641 	0.02
33.3	0.001	0.637	0.005;	X-Ka
165.857 	0.003	0.799	0.0004

#Ce-139P   ; IAEA, 2003
T1/2: 	137.641 	0.02
33.0344	0.001	0.225	0.003;	X-Ka2
33.4421	0.001	0.412	0.004;	X-Ka1
165.857 	0.003	0.799	0.0004

#Ce-141   ; IAEA, 2003
T1/2: 	32.508 	0.013
35.86	0.001	0.1339	0.0016;	X-Ka
145.4433 	0.0014	0.4829	0.002

#Ce-141P   ; IAEA, 2003
T1/2: 	32.508 	0.013
35.5506	0.001	0.0474	0.0011;	X-Ka2
36.0267	0.001	0.0865	0.0012;	X-Ka1
145.4433 	0.0014	0.4829	0.002

#Sm-153   ; IAEA, 2003
T1/2: 	1.92849	0.00011
41.318	0.001	0.456	0.005;	Eu-Ka
69.67300 	0.00013	0.0473	0.0003
97.43100 	0.00021	0.00772	0.00018
103.18012 	0.00017	0.293	0.003
172.85307 	0.00021	0.000737	0.00002

#Sm-153P   ; IAEA, 2003
T1/2: 	1.92849	0.00011
40.9024	0.001	0.163	0.003;	Eu-Ka2
41.5427	0.001	0.293	0.004;	Eu-Ka1
69.67300 	0.00013	0.0473	0.0003
97.43100 	0.00021	0.00772	0.00018
103.18012 	0.00017	0.293	0.003
172.85307 	0.00021	0.000737	0.00002

#Eu-152   ; IAEA, 2003
T1/2: 	4940	5
39.91	0.001	0.585	0.006;	Sm-Ka
121.7817 	0.0003	0.2841	0.0013
244.6974 	0.0008	0.0755	0.0004
295.9387 	0.0017	0.00442	0.00003
344.2785 	0.0012	0.2658	0.0012
367.7891 	0.002	0.00862	0.00005
411.1165 	0.0012	0.02237	0.0001
443.965 	0.003	0.0312	0.0003
488.6792 	0.002	0.004137	0.000024
586.265 	0.003	0.00462	0.00004
678.623 	0.005	0.0047	0.00004
688.670 	0.005	0.00841	0.00006
778.9045 	0.0024	0.1296	0.0006
867.380 	0.003	0.04241	0.00023
919.337 	0.004	0.00429	0.00005
963.390 	0.012	0.001341	0.00002
964.079 	0.018	0.1449	0.0006
1085.837 	0.01	0.1013	0.0006
1089.737 	0.005	0.0173	0.0001
1112.076 	0.003	0.134	0.0006
1212.948 	0.011	0.01415	0.00009
1299.142 	0.008	0.01632	0.00009
1408.013 	0.003	0.2084	0.0009
1457.643 	0.011	0.00498	0.00004

#Eu-152P   ; IAEA, 2003
T1/2: 	4940	5
39.5229	0.001	0.208	0.003;	Sm-Ka2
40.1186	0.001	0.377	0.005;	Sm-Ka1
121.7817 	0.0003	0.2841	0.0013
244.6974 	0.0008	0.0755	0.0004
295.9387 	0.0017	0.00442	0.00003
344.2785 	0.0012	0.2658	0.0012
367.7891 	0.002	0.00862	0.00005
411.1165 	0.0012	0.02237	0.0001
443.965 	0.003	0.0312	0.0003
488.6792 	0.002	0.004137	0.000024
586.265 	0.003	0.00462	0.00004
678.623 	0.005	0.0047	0.00004
688.670 	0.005	0.00841	0.00006
778.9045 	0.0024	0.1296	0.0006
867.380 	0.003	0.04241	0.00023
919.337 	0.004	0.00429	0.00005
963.390 	0.012	0.001341	0.00002
964.079 	0.018	0.1449	0.0006
1085.837 	0.01	0.1013	0.0006
1089.737 	0.005	0.0173	0.0001
1112.076 	0.003	0.134	0.0006
1212.948 	0.011	0.01415	0.00009
1299.142 	0.008	0.01632	0.00009
1408.013 	0.003	0.2084	0.0009
1457.643 	0.011	0.00498	0.00004

#Eu-154   ; IAEA, 2003
T1/2: 	3141.4	1.5
42.751	0.001	0.202	0.004;	Gd-Ka
123.0706 	0.0009	0.404	0.005
247.9288 	0.0007	0.0689	0.0007
591.755 	0.003	0.0495	0.0005
723.3014 	0.0022	0.2005	0.0021
756.8020 	0.0023	0.0453	0.0005
873.1834 	0.0023	0.1217	0.0012
996.25 	0.05	0.105	0.001
1004.718 	0.007	0.1786	0.0018
1274.429 	0.004	0.349	0.003
1494.048 	0.004	0.00698	0.00009
1596.4804 	0.0028	0.01783	0.00017

#Eu-154P   ; IAEA, 2003
T1/2: 	3141.4	1.5
42.3093	0.001	0.072	0.002;	Gd-Ka2
42.9967	0.001	0.13	0.003;	Gd-Ka1
123.0706 	0.0009	0.404	0.005
247.9288 	0.0007	0.0689	0.0007
591.755 	0.003	0.0495	0.0005
723.3014 	0.0022	0.2005	0.0021
756.8020 	0.0023	0.0453	0.0005
873.1834 	0.0023	0.1217	0.0012
996.25 	0.05	0.105	0.001
1004.718 	0.007	0.1786	0.0018
1274.429 	0.004	0.349	0.003
1494.048 	0.004	0.00698	0.00009
1596.4804 	0.0028	0.01783	0.00017

#Gd-153   ; IAEA, 2003
T1/2: 	240.4 	1
41.5427	0.001	0.622	0.015; Eu-Ka
69.67302 	0.00013	0.0242	0.0007
97.43100 	0.00021	0.29	0.008
103.18012 	0.00017	0.211	0.006
172.85307 	0.00021	0.00036	0.00002

#Gd-153P   ; IAEA, 2003
T1/2: 	240.4 	1
40.9024	0.001	0.345	0.009; Eu-Ka2
41.318	0.001	0.967	0.017; Eu-Ka1
69.67302 	0.00013	0.0242	0.0007
97.43100 	0.00021	0.29	0.008
103.18012 	0.00017	0.211	0.006
172.85307 	0.00021	0.00036	0.00002

#Yb-169   ; IAEA, 2003
T1/2: 	32.018 	0.005
50.39	0.001	1.464	0.015;	Tm-Ka
63.12044 	0.00004	0.4405	0.0024
93.61447 	0.00008	0.02571	0.00017
109.77924 	0.00004	0.1736	0.0009
130.52293 	0.00006	0.1138	0.0005
177.21307 	0.00006	0.2232	0.001
197.95675 	0.00007	0.3593	0.0012
261.07712 	0.00009	0.01687	0.00008
307.73757 	0.00009	0.10046	0.00045

#Yb-169P   ; IAEA, 2003
T1/2: 	32.018 	0.005
49.7731	0.001	0.529	0.008;	Tm-Ka2
50.7417	0.001	0.935	0.013;	Tm-Ka1
63.12044 	0.00004	0.4405	0.0024
93.61447 	0.00008	0.02571	0.00017
109.77924 	0.00004	0.1736	0.0009
130.52293 	0.00006	0.1138	0.0005
177.21307 	0.00006	0.2232	0.001
197.95675 	0.00007	0.3593	0.0012
261.07712 	0.00009	0.01687	0.00008
307.73757 	0.00009	0.10046	0.00045

#Ir-192   ; IAEA, 2003
T1/2: 	73.827 	0.013
62.448	0.001	0.033	0.0006;	Os-Ka
66.196	0.001	0.0721	0.0009;	Pt-Ka
136.3426 	0.0003	0.00199	0.00025
205.79430 	0.00009	0.0334	0.0004
295.95650 	0.00015	0.2872	0.0014
308.45507 	0.00017	0.2968	0.0015
316.50618 	0.00017	0.8275	0.0021
468.0688 	0.0003	0.4781	0.0024
484.5751 	0.0004	0.03189	0.00024
588.5810 	0.0007	0.04517	0.00022
604.41105 	0.00025	0.082	0.0004
612.4621 	0.0003	0.0534	0.0008
884.5365 	0.0007	0.00291	0.00007

#Ir-192P   ; IAEA, 2003
T1/2: 	73.827 	0.013
61.4873	0.001	0.01211	0.00025;	Os-Ka2
63.0011	0.001	0.0209	0.0005;	Os-Ka1
65.123	0.001	0.0266	0.0005;	Pt-Ka2
66.833	0.001	0.0455	0.0008;	Pt-Ka1
136.3426 	0.0003	0.00199	0.00025
205.79430 	0.00009	0.0334	0.0004
295.95650 	0.00015	0.2872	0.0014
308.45507 	0.00017	0.2968	0.0015
316.50618 	0.00017	0.8275	0.0021
468.0688 	0.0003	0.4781	0.0024
484.5751 	0.0004	0.03189	0.00024
588.5810 	0.0007	0.04517	0.00022
604.41105 	0.00025	0.082	0.0004
612.4621 	0.0003	0.0534	0.0008
884.5365 	0.0007	0.00291	0.00007

#Au-198   ; IAEA, 2003
T1/2: 	2.6948 	0.0004
411.80205 	0.00017	0.9554	0.0007

#Hg-203   ; IAEA, 2003
T1/2: 	46.603 	0.021
70.8325	0.001	0.0375	0.0004; Tl-Ka2
72.8725	0.001	0.0633	0.0005;	Tl-Ka1
279.1952 	0.001	0.8148	0.0008

#Bi-207  ; IAEA, 2003
T1/2: 	12016.47	0.05
569.698 	0.002	0.9776	0.0003
1063.656 	0.003	0.7458	0.0049
1770.228 	0.009	0.0687	0.0003

#Ra-226  	; IAEA, 2003
T1/2: 	586200	2200	;	with daughters in equilibrium
53.2275 	210000	0.01066 	0.00014;	214Pb
2118.536 	0.008	0.01148 	0.00011;	214Bi
186.211 	0.013	0.03533 	0.00028;	226Ra
241.997 	0.003	0.0719 	0.0006;	214Pb
295.224 	0.002	0.1828 	0.0014;	214Pb
351.932 	0.002	0.3534 	0.0027;	214Pb
609.316 	0.003	0.4516 	0.0033;	214Bi
665.453 	0.022	0.01521 	0.00011;	214Bi
768.367 	0.011	0.04850 	0.00038;	214Bi
806.185 	0.011	0.01255 	0.00011;	214Bi
934.061 	0.012	0.03074 	0.00025;	214Bi
1120.287 	0.01	0.1478 	0.0011;	214Bi
1155.19 	0.02	0.01624 	0.00014;	214Bi
1238.110 	0.012	0.05785 	0.00045;	214Bi
1280.96 	0.02	0.01425 	0.00012;	214Bi
1377.669 	0.012	0.03954 	0.00033;	214Bi
1401.516 	0.014	0.01324 	0.00011;	214Bi
1407.993 	0.007	0.02369 	0.00019;	 214Bi
1509.217 	0.008	0.02108 	0.00021;	214Bi
1661.316 	0.013	0.01037 	0.0001;	214Bi
1729.640 	0.012	0.02817 	0.00023;	214Bi
1764.539 	0.015	0.1517 	0.0012;	214Bi
1847.420 	0.025	0.02000 	0.00018;	214Bi
2204.071 	0.021	0.0489 	0.001;	214Bi
2447.673 	0.01	0.01536 	0.00015;	214Bi

#Am-241  ; IAEA, 2003
T1/2: 	158000	220
26.3446 	0.0002	0.024	0.0003
59.5409 	0.0001	0.3578	0.0009

#Am-241P  ; IAEA, 2007 STI/PUB/1287 ISBN 92??13606?
T1/2:   157850	230
11.89   0.02    0.00848  0.00010
13.90   0.02    0.1303   0.0010
17.81   0.02    0.1886   0.0015
20.82   0.02    0.0481   0.0004
26.3446	0.0002	0.024	0.0003
33.1963	0.0003  0.00121 0.00003
59.5409	0.0001	0.3578	0.0009

#X-00 ;	Handbook of Nuclear Chemistry (Kluwer 2003)
;assumed dE=0.001 keV, dI=2 % uncertainty 
9.876	0.001	151.3	3.	;	Ge-Ka
10.983	0.001	20.1	0.2	;	Ge-Kb*
72.805	0.001	59.4	1.2	;	Pb-Ka2
74.969	0.001	100.	2.	;	Pb-Ka1
74.815	0.001	59.4	1.2	;	Bi-Ka2
76.863	0.001	59.7	1.2	;	Po-Ka2
77.107	0.001	100.	2.	;	Bi-Ka1
79.290	0.001	100.	1.2	;	Po-Ka1
84.784	0.001	35.4	0.7	;	Pb-Kb1*
87.185	0.001	35.4	0.7	;	Bi-Kb1*
87.352	0.001	10.2	0.2	;	Pb-Kb2*
89.633	0.001	35.4	0.7	;	Po-Kb1*
89.843	0.001	10.5	0.2	;	Bi-Kb2*
89.957	0.001	61.3	1.2	;	Th-Ka2
92.282	0.001	61.7	1.25	;	Pa-Ka2
92.383	0.001	10.8	0.2	;	Po-Kb2*
93.350	0.001	100.	2.	;	Th-Ka1
94.654	0.001	61.8	1.25	;	U-Ka2
95.863	0.001	100.	2.	;	Pa-Ka1
98.434	0.001	100.	2.	;	U-Ka1
105.355	0.001	36.3	0.7	;	Th-Kb1*
108.159	0.001	36.4	0.7	;	Pa-Kb1*
108.679	0.001	12.	0.25	;	Th-Kb2*
111.018	0.001	36.5	0.7	;	U-Kb1*
111.585	0.001	12.1	0.25	;	Pa-Kb2*
114.550	0.001	12.3	0.25	;	U-Kb2*



#CERTIFICATES: ;Certificates for absolute detector efficiency calibration


#Am85-264  ;OMH, Owner:Simi
Nuclide: Am-241
Activity: 421.2 (1.0%); check sigma
RefDate: 10-01-1985 12:00:00

#Ba85-211   ;OMH, Owner:Simi
Nuclide: Ba-133
Activity: 456.4 (0.5%); corrected to 1 sigma
RefDate: 10-01-1985 12:00:00

#Bi1A-061   ;OMH, Owner:Molnar
Nuclide: Bi-207
Activity: 392.2 (2%); ~5% 3-sigma unc. assumed
RefDate: 05-01-1980 12:00:00

#Bi1A-061r   ;OMH, Owner:Molnar
Nuclide: Bi-207
Activity: 249.69 (0.4%);  estimated
RefDate: 04-14-2000 12:50:52

#Co78-114   ;OMH, Owner:Molnar
Nuclide: Co-60
Activity: 404.8 (0.4%); corrected to 1 sigma
RefDate: 10-01-1978 12:00:00

#Co57-2001-042   ;OMH, Owner:Simonits
Nuclide: Co-57
Activity: 32.63 (0.5%); corrected to 1 sigma
RefDate: 05-01-2001 12:00:00

#Cd109-2001-043   ;OMH, Owner:Simonits
Nuclide: Cd-109
Activity: 100.4 (0.5%); corrected to 1 sigma
RefDate: 05-01-2001 12:00:00

#Co78r   ;OMH, Owner:Molnar
Nuclide: Co-60
Activity: 404.8 (0.0%); error omitted
RefDate: 10-01-1978 12:00:00

#Co01-042   ;OMH,Owner:Simi
Nuclide: Co-57
Activity: 32.63(0.5%) ; 1 sigma
RefDate: 05-01-2001 12:00:00

#Co60-PTB   ;PTB,Owner:NKO
Nuclide: Co-60
Activity: 201.0 (0.7%) ; 1 sigma = 1.4 kBq
RefDate: 06-01-2009 00:00:00

#Cs85-230   ;OMH, Owner:Simi
Nuclide: Cs-137
Activity: 440.6 (0.5%); corrected to 1 sigma
RefDate: 10-01-1985 12:00:00

#Cs78-133   ;OMH, Owner:Molnar
Nuclide: Cs-137
Activity: 424.8 (0.5%)
RefDate: 10-01-1978 12:00:00

#Cs78-133p   ;OMH, Owner:Molnar
Nuclide: Cs-137P
Activity: 424.8 (0.5%)
RefDate: 10-01-1978 12:00:00

#Cs-137-OMH-3-SP ;OMH, Owner:Simonits
Nuclide: Cs-137
Activity: 20.75 (1.0%) ; assumed unc.
RefDate: 01-12-1996 12:00:00

#Eu78-153   ;OMH, Owner:Molnar
Nuclide: Eu-152
Activity: 203.9 (0.7%)
RefDate: 07-01-1978 12:00:00

#Eu78-153_nounc   ;OMH, Owner:Molnar
Nuclide: Eu-152
Activity: 203.9 (0.0%)
RefDate: 07-01-1978 12:00:00

#Eu78-153p   ;OMH, Owner:Molnar
Nuclide: Eu-152P
Activity: 203.9 (0.7%)
RefDate: 07-01-1978 12:00:00

#EuEE277    ;Amersham, Owner:Molnar
Nuclide: Eu-152
Activity: 387 (1.7%); corrected to 1 sigma
RefDate: 03-01-1995 13:00:00

#EuEE277r    ;Amersham, Owner:Molnar
Nuclide: Eu-152
Activity: 387 (0.0%) ;error omitted
RefDate: 03-01-1995 13:00:00

#Mn54-2001-041   ;OMH, Owner:Simonits
Nuclide: Mn-54
Activity: 18.98 (0.5%); corrected to 1 sigma
RefDate: 05-01-2001 12:00:00

#Ra645-78   ;PTB, Owner:Molnar
Nuclide: Ra-226
Activity: 101 (0.7%)
RefDate: 01-01-1978 12:00:00

#H_s   ;Cross section in mb units, Mughabghab 1981
Nuclide: H_s
Activity: 332.6 (0.21%)
RefDate: 01-01-1981 12:00:00

#Au-198 626   ;home made
Nuclide: Au-198
Activity: 0.42 (1.0%)
RefDate: 01-18-2006 08:28:00

#Cr-51 626   ;home made
Nuclide: Cr-51
Activity: 101.49 (0.8%)
RefDate: 01-16-2006 14:57:00

#Zn-65 626   ;home made
Nuclide: Zn-65
Activity: 47.91 (0.8%)
RefDate: 01-16-2006 08:45:00

#Au-198Cser   ;home made
Nuclide: Au-198
Activity: 1.03 (1.2%)
RefDate: 04-10-2006 12:42:50

#Am2008-2128-PTB  ;PTB, Owner:NAL
Nuclide: Am-241
Activity: 112.4 (0.5%); corrected to 1 sigma
RefDate: 06-01-2012 12:00:00

#Ba2000-1831-PTB  ;PTB, Owner:NAL
Nuclide: Ba-133
Activity: 213.4 (0.5%); corrected to 1 sigma
RefDate: 06-01-2012 12:00:00

#Cs2010-1833-PTB   ;PTB, Owner:NAL
Nuclide: Cs-137
Activity: 178.0 (0.5%)
RefDate: 06-01-2012 12:00:00

#Ra402-84-PTB   ;PTB, Owner:NAL
Nuclide: Ra-226
Activity: 159 (1.25%); corrected to 1 sigma
RefDate: 06-01-2012 12:00:00

#Ra402-84-PTB-r   ;PTB, Owner:NAL
Nuclide: Ra-226
Activity: 159 (0.0%); error omitted
RefDate: 06-01-2012 12:00:00
#  ;End of Nuclib.STD
